Thông số của bộ lọc Thông thấp
==================================================

Số hệ số (bậc của bộ lọc): 100
Tần số lấy mẫu: 100 Hz
Tần số Nyquist: 50.0 Hz

Đáp ứng xung h(k):
------------------------------
h(  0) =    0.0000000000
h(  1) =    0.0000983022
h(  2) =    0.0002037719
h(  3) =    0.0003192871
h(  4) =    0.0004465792
h(  5) =    0.0005855599
h(  6) =    0.0007337474
h(  7) =    0.0008858505
h(  8) =    0.0010335606
h(  9) =    0.0011655918
h( 10) =    0.0012679916
h( 11) =    0.0013247321
h( 12) =    0.0013185698
h( 13) =    0.0012321435
h( 14) =    0.0010492628
h( 15) =    0.0007563233
h( 16) =    0.0003437697
h( 17) =   -0.0001924807
h( 18) =   -0.0008497443
h( 19) =   -0.0016175018
h( 20) =   -0.0024766362
h( 21) =   -0.0033990551
h( 22) =   -0.0043477549
h( 23) =   -0.0052773653
h( 24) =   -0.0061351895
h( 25) =   -0.0068627280
h( 26) =   -0.0073976494
h( 27) =   -0.0076761433
h( 28) =   -0.0076355687
h( 29) =   -0.0072172893
h( 30) =   -0.0063695716
h( 31) =   -0.0050504115
h( 32) =   -0.0032301520
h( 33) =   -0.0008937559
h( 34) =    0.0019573891
h( 35) =    0.0053042442
h( 36) =    0.0091095544
h( 37) =    0.0133180050
h( 38) =    0.0178571240
h( 39) =    0.0226389244
h( 40) =    0.0275622448
h( 41) =    0.0325157116
h( 42) =    0.0373812192
h( 43) =    0.0420377958
h( 44) =    0.0463657021
h( 45) =    0.0502505966
h( 46) =    0.0535875964
h( 47) =    0.0562850612
h( 48) =    0.0582679412
h( 49) =    0.0594805436
h( 50) =    0.0598886000
h( 51) =    0.0594805436
h( 52) =    0.0582679412
h( 53) =    0.0562850612
h( 54) =    0.0535875964
h( 55) =    0.0502505966
h( 56) =    0.0463657021
h( 57) =    0.0420377958
h( 58) =    0.0373812192
h( 59) =    0.0325157116
h( 60) =    0.0275622448
h( 61) =    0.0226389244
h( 62) =    0.0178571240
h( 63) =    0.0133180050
h( 64) =    0.0091095544
h( 65) =    0.0053042442
h( 66) =    0.0019573891
h( 67) =   -0.0008937559
h( 68) =   -0.0032301520
h( 69) =   -0.0050504115
h( 70) =   -0.0063695716
h( 71) =   -0.0072172893
h( 72) =   -0.0076355687
h( 73) =   -0.0076761433
h( 74) =   -0.0073976494
h( 75) =   -0.0068627280
h( 76) =   -0.0061351895
h( 77) =   -0.0052773653
h( 78) =   -0.0043477549
h( 79) =   -0.0033990551
h( 80) =   -0.0024766362
h( 81) =   -0.0016175018
h( 82) =   -0.0008497443
h( 83) =   -0.0001924807
h( 84) =    0.0003437697
h( 85) =    0.0007563233
h( 86) =    0.0010492628
h( 87) =    0.0012321435
h( 88) =    0.0013185698
h( 89) =    0.0013247321
h( 90) =    0.0012679916
h( 91) =    0.0011655918
h( 92) =    0.0010335606
h( 93) =    0.0008858505
h( 94) =    0.0007337474
h( 95) =    0.0005855599
h( 96) =    0.0004465792
h( 97) =    0.0003192871
h( 98) =    0.0002037719
h( 99) =    0.0000983022
h(100) =    0.0000000000

Đáp ứng tần số H(z):
------------------------------
Tần số(Hz)  |H(z)|(dB)    Pha(độ)
--------------------------------------------------
     0.000        0.000        0.000
     0.063       -0.000      -11.250
     0.125       -0.001      -22.500
     0.188       -0.002      -33.750
     0.250       -0.004      -45.000
     0.312       -0.005      -56.250
     0.375       -0.007      -67.500
     0.438       -0.009      -78.750
     0.500       -0.010      -90.000
     0.562       -0.012     -101.250
     0.625       -0.012     -112.500
     0.688       -0.013     -123.750
     0.750       -0.012     -135.000
     0.812       -0.012     -146.250
     0.875       -0.011     -157.500
     0.938       -0.010     -168.750
     1.000       -0.010     -180.000
     1.062       -0.011     -191.250
     1.125       -0.013     -202.500
     1.188       -0.017     -213.750
     1.250       -0.023     -225.000
     1.312       -0.034     -236.250
     1.375       -0.049     -247.500
     1.438       -0.070     -258.750
     1.500       -0.097     -270.000
     1.562       -0.133     -281.250
     1.625       -0.177     -292.500
     1.688       -0.232     -303.750
     1.750       -0.299     -315.000
     1.812       -0.379     -326.250
     1.875       -0.473     -337.500
     1.938       -0.582     -348.750
     2.000       -0.709     -360.000
     2.063       -0.853     -371.250
     2.125       -1.017     -382.500
     2.188       -1.202     -393.750
     2.250       -1.408     -405.000
     2.312       -1.638     -416.250
     2.375       -1.893     -427.500
     2.438       -2.173     -438.750
     2.500       -2.480     -450.000
     2.563       -2.815     -461.250
     2.625       -3.179     -472.500
     2.688       -3.574     -483.750
     2.750       -4.002     -495.000
     2.812       -4.462     -506.250
     2.875       -4.957     -517.500
     2.937       -5.488     -528.750
     3.000       -6.056     -540.000
     3.063       -6.663     -551.250
     3.125       -7.312     -562.500
     3.188       -8.002     -573.750
     3.250       -8.737     -585.000
     3.312       -9.518     -596.250
     3.375      -10.348     -607.500
     3.438      -11.229     -618.750
     3.500      -12.164     -630.000
     3.562      -13.156     -641.250
     3.625      -14.209     -652.500
     3.688      -15.326     -663.750
     3.750      -16.513     -675.000
     3.812      -17.774     -686.250
     3.875      -19.117     -697.500
     3.938      -20.549     -708.750
     4.000      -22.080     -720.000
     4.062      -23.721     -731.250
     4.125      -25.487     -742.500
     4.188      -27.398     -753.750
     4.250      -29.480     -765.000
     4.312      -31.771     -776.250
     4.375      -34.325     -787.500
     4.438      -37.229     -798.750
     4.500      -40.634     -810.000
     4.563      -44.846     -821.250
     4.625      -50.648     -832.500
     4.688      -61.677     -843.750
     4.750      -62.994     -675.000
     4.812      -55.097     -686.250
     4.875      -52.345     -697.500
     4.938      -51.197     -708.750
     5.000      -50.890     -720.000
     5.062      -51.135     -731.250
     5.125      -51.795     -742.500
     5.187      -52.798     -753.750
     5.250      -54.107     -765.000
     5.312      -55.699     -776.250
     5.375      -57.568     -787.500
     5.438      -59.710     -798.750
     5.500      -62.120     -810.000
     5.562      -64.783     -821.250
     5.625      -67.655     -832.500
     5.688      -70.627     -843.750
     5.750      -73.487     -855.000
     5.812      -75.903     -866.250
     5.875      -77.540     -877.500
     5.937      -78.307     -888.750
     6.000      -78.467     -900.000
     6.062      -78.454     -911.250
     6.125      -78.677     -922.500
     6.188      -79.500     -933.750
     6.250      -81.419     -945.000
     6.312      -85.690     -956.250
     6.375     -103.348     -967.500
     6.438      -86.126     -798.750
     6.500      -78.824     -810.000
     6.562      -74.633     -821.250
     6.625      -71.741     -832.500
     6.688      -69.619     -843.750
     6.750      -68.039     -855.000
     6.813      -66.884     -866.250
     6.875      -66.090     -877.500
     6.938      -65.621     -888.750
     7.000      -65.465     -900.000
     7.062      -65.626     -911.250
     7.125      -66.127     -922.500
     7.187      -67.023     -933.750
     7.250      -68.413     -945.000
     7.312      -70.500     -956.250
     7.375      -73.754     -967.500
     7.438      -79.713     -978.750
     7.500     -110.073     -810.000
     7.562      -79.169     -821.250
     7.625      -73.429     -832.500
     7.688      -70.223     -843.750
     7.750      -68.143     -855.000
     7.813      -66.744     -866.250
     7.875      -65.835     -877.500
     7.938      -65.319     -888.750
     8.000      -65.152     -900.000
     8.062      -65.319     -911.250
     8.125      -65.829     -922.500
     8.188      -66.723     -933.750
     8.250      -68.086     -945.000
     8.313      -70.091     -956.250
     8.375      -73.121     -967.500
     8.438      -78.321     -978.750
     8.500      -94.650     -990.000
     8.563      -81.551     -821.250
     8.625      -74.835     -832.500
     8.688      -71.354     -843.750
     8.750      -69.160     -855.000
     8.813      -67.708     -866.250
     8.875      -66.774     -877.500
     8.938      -66.249     -888.750
     9.000      -66.080     -900.000
     9.062      -66.248     -911.250
     9.125      -66.760     -922.500
     9.188      -67.654     -933.750
     9.250      -69.011     -945.000
     9.312      -70.998     -956.250
     9.375      -73.983     -967.500
     9.438      -79.038     -978.750
     9.500      -93.651     -990.000
     9.562      -83.173     -821.250
     9.625      -76.174     -832.500
     9.688      -72.620     -843.750
     9.750      -70.397     -855.000
     9.812      -68.931     -866.250
     9.875      -67.991     -877.500
     9.938      -67.464     -888.750
    10.000      -67.294     -900.000
    10.063      -67.461     -911.250
    10.125      -67.974     -922.500
    10.188      -68.869     -933.750
    10.250      -70.226     -945.000
    10.312      -72.211     -956.250
    10.375      -75.190     -967.500
    10.437      -80.225     -978.750
    10.500      -94.624     -990.000
    10.562      -84.495     -821.250
    10.625      -77.452     -832.500
    10.688      -73.887     -843.750
    10.750      -71.659     -855.000
    10.813      -70.192     -866.250
    10.875      -69.251     -877.500
    10.937      -68.722     -888.750
    11.000      -68.553     -900.000
    11.063      -68.720     -911.250
    11.125      -69.234     -922.500
    11.188      -70.129     -933.750
    11.250      -71.488     -945.000
    11.313      -73.476     -956.250
    11.375      -76.462     -967.500
    11.438      -81.516     -978.750
    11.500      -96.113     -990.000
    11.562      -85.663     -821.250
    11.625      -78.661     -832.500
    11.687      -75.107     -843.750
    11.750      -72.883     -855.000
    11.812      -71.417     -866.250
    11.875      -70.477     -877.500
    11.938      -69.949     -888.750
    12.000      -69.779     -900.000
    12.062      -69.947     -911.250
    12.125      -70.460     -922.500
    12.188      -71.357     -933.750
    12.250      -72.718     -945.000
    12.313      -74.711     -956.250
    12.375      -77.708     -967.500
    12.438      -82.795     -978.750
    12.500      -97.746     -990.000
    12.562      -86.733     -821.250
    12.625      -79.799     -832.500
    12.688      -76.262     -843.750
    12.750      -74.045     -855.000
    12.812      -72.582     -866.250
    12.875      -71.643     -877.500
    12.937      -71.116     -888.750
    13.000      -70.946     -900.000
    13.062      -71.114     -911.250
    13.125      -71.628     -922.500
    13.188      -72.525     -933.750
    13.250      -73.889     -945.000
    13.312      -75.887     -956.250
    13.375      -78.897     -967.500
    13.438      -84.022     -978.750
    13.500      -99.396     -990.000
    13.563      -87.727     -821.250
    13.625      -80.866     -832.500
    13.688      -77.348     -843.750
    13.750      -75.139     -855.000
    13.812      -73.680     -866.250
    13.875      -72.742     -877.500
    13.938      -72.215     -888.750
    14.000      -72.046     -900.000
    14.062      -72.214     -911.250
    14.125      -72.728     -922.500
    14.188      -73.626     -933.750
    14.250      -74.993     -945.000
    14.312      -76.997     -956.250
    14.375      -80.019     -967.500
    14.438      -85.183     -978.750
    14.500     -101.011     -990.000
    14.562      -88.655     -821.250
    14.625      -81.867     -832.500
    14.688      -78.368     -843.750
    14.750      -76.166     -855.000
    14.813      -74.711     -866.250
    14.875      -73.775     -877.500
    14.938      -73.248     -888.750
    15.000      -73.078     -900.000
    15.063      -73.246     -911.250
    15.125      -73.761     -922.500
    15.188      -74.660     -933.750
    15.250      -76.029     -945.000
    15.312      -78.038     -956.250
    15.375      -81.073     -967.500
    15.438      -86.274     -978.750
    15.500     -102.572     -990.000
    15.562      -89.525     -821.250
    15.625      -82.805     -832.500
    15.688      -79.324     -843.750
    15.750      -77.129     -855.000
    15.812      -75.677     -866.250
    15.875      -74.742     -877.500
    15.938      -74.216     -888.750
    16.000      -74.047     -900.000
    16.063      -74.215     -911.250
    16.125      -74.729     -922.500
    16.188      -75.630     -933.750
    16.250      -77.001     -945.000
    16.312      -79.015     -956.250
    16.375      -82.061     -967.500
    16.438      -87.298     -978.750
    16.500     -104.071     -990.000
    16.563      -90.341     -821.250
    16.625      -83.685     -832.500
    16.688      -80.220     -843.750
    16.750      -78.032     -855.000
    16.812      -76.583     -866.250
    16.875      -75.649     -877.500
    16.938      -75.124     -888.750
    17.000      -74.954     -900.000
    17.063      -75.122     -911.250
    17.125      -75.637     -922.500
    17.188      -76.538     -933.750
    17.250      -77.911     -945.000
    17.312      -79.930     -956.250
    17.375      -82.988     -967.500
    17.438      -88.259     -978.750
    17.500     -105.508     -990.000
    17.562      -91.109     -821.250
    17.625      -84.510     -832.500
    17.688      -81.060     -843.750
    17.750      -78.879     -855.000
    17.812      -77.432     -866.250
    17.875      -76.500     -877.500
    17.938      -75.975     -888.750
    18.000      -75.805     -900.000
    18.062      -75.973     -911.250
    18.125      -76.488     -922.500
    18.188      -77.390     -933.750
    18.250      -78.765     -945.000
    18.313      -80.789     -956.250
    18.375      -83.856     -967.500
    18.438      -89.160     -978.750
    18.500     -106.885     -990.000
    18.562      -91.832     -821.250
    18.625      -85.285     -832.500
    18.688      -81.849     -843.750
    18.750      -79.673     -855.000
    18.812      -78.229     -866.250
    18.875      -77.298     -877.500
    18.938      -76.773     -888.750
    19.000      -76.604     -900.000
    19.062      -76.772     -911.250
    19.125      -77.287     -922.500
    19.188      -78.190     -933.750
    19.250      -79.567     -945.000
    19.312      -81.594     -956.250
    19.375      -84.672     -967.500
    19.438      -90.005     -978.750
    19.500     -108.205     -990.000
    19.562      -92.512     -821.250
    19.625      -86.013     -832.500
    19.688      -82.590     -843.750
    19.750      -80.419     -855.000
    19.812      -78.978     -866.250
    19.875      -78.047     -877.500
    19.938      -77.523     -888.750
    20.000      -77.354     -900.000
    20.062      -77.522     -911.250
    20.125      -78.037     -922.500
    20.188      -78.941     -933.750
    20.250      -80.319     -945.000
    20.312      -82.351     -956.250
    20.375      -85.437     -967.500
    20.438      -90.799     -978.750
    20.500     -109.473     -990.000
    20.562      -93.153     -821.250
    20.625      -86.697     -832.500
    20.688      -83.286     -843.750
    20.750      -81.120     -855.000
    20.812      -79.681     -866.250
    20.875      -78.752     -877.500
    20.938      -78.228     -888.750
    21.000      -78.058     -900.000
    21.062      -78.227     -911.250
    21.125      -78.742     -922.500
    21.188      -79.646     -933.750
    21.250      -81.027     -945.000
    21.312      -83.062     -956.250
    21.375      -86.156     -967.500
    21.438      -91.545     -978.750
    21.500     -110.693     -990.000
    21.562      -93.757     -821.250
    21.625      -87.341     -832.500
    21.688      -83.941     -843.750
    21.750      -81.779     -855.000
    21.812      -80.342     -866.250
    21.875      -79.414     -877.500
    21.938      -78.890     -888.750
    22.000      -78.721     -900.000
    22.063      -78.889     -911.250
    22.125      -79.405     -922.500
    22.188      -80.310     -933.750
    22.250      -81.691     -945.000
    22.312      -83.730     -956.250
    22.375      -86.833     -967.500
    22.438      -92.246     -978.750
    22.500     -111.868     -990.000
    22.562      -94.326     -821.250
    22.625      -87.946     -832.500
    22.688      -84.557     -843.750
    22.750      -82.399     -855.000
    22.812      -80.964     -866.250
    22.875      -80.036     -877.500
    22.938      -79.513     -888.750
    23.000      -79.344     -900.000
    23.062      -79.512     -911.250
    23.125      -80.028     -922.500
    23.188      -80.933     -933.750
    23.250      -82.317     -945.000
    23.312      -84.358     -956.250
    23.375      -87.469     -967.500
    23.438      -92.906     -978.750
    23.500     -113.004     -990.000
    23.562      -94.861     -821.250
    23.625      -88.516     -832.500
    23.688      -85.136     -843.750
    23.750      -82.983     -855.000
    23.813      -81.549     -866.250
    23.875      -80.622     -877.500
    23.938      -80.099     -888.750
    24.000      -79.930     -900.000
    24.063      -80.098     -911.250
    24.125      -80.614     -922.500
    24.188      -81.520     -933.750
    24.250      -82.905     -945.000
    24.312      -84.949     -956.250
    24.375      -88.067     -967.500
    24.438      -93.527     -978.750
    24.500     -114.103     -990.000
    24.562      -95.366     -821.250
    24.625      -89.052     -832.500
    24.688      -85.681     -843.750
    24.750      -83.531     -855.000
    24.812      -82.099     -866.250
    24.875      -81.173     -877.500
    24.938      -80.650     -888.750
    25.000      -80.481     -900.000
    25.063      -80.649     -911.250
    25.125      -81.166     -922.500
    25.188      -82.072     -933.750
    25.250      -83.458     -945.000
    25.313      -85.505     -956.250
    25.375      -88.630     -967.500
    25.438      -94.112     -978.750
    25.500     -115.170     -990.000
    25.562      -95.840     -821.250
    25.625      -89.557     -832.500
    25.688      -86.194     -843.750
    25.750      -84.047     -855.000
    25.812      -82.617     -866.250
    25.875      -81.691     -877.500
    25.938      -81.169     -888.750
    26.000      -81.000     -900.000
    26.062      -81.168     -911.250
    26.125      -81.684     -922.500
    26.187      -82.591     -933.750
    26.250      -83.978     -945.000
    26.313      -86.029     -956.250
    26.375      -89.160     -967.500
    26.438      -94.662     -978.750
    26.500     -116.207     -990.000
    26.563      -96.287     -821.250
    26.625      -90.031     -832.500
    26.688      -86.676     -843.750
    26.750      -84.532     -855.000
    26.812      -83.103     -866.250
    26.875      -82.178     -877.500
    26.938      -81.656     -888.750
    27.000      -81.487     -900.000
    27.062      -81.655     -911.250
    27.125      -82.172     -922.500
    27.188      -83.079     -933.750
    27.250      -84.468     -945.000
    27.312      -86.520     -956.250
    27.375      -89.658     -967.500
    27.438      -95.180     -978.750
    27.500     -117.220     -990.000
    27.563      -96.706     -821.250
    27.625      -90.476     -832.500
    27.688      -87.129     -843.750
    27.750      -84.988     -855.000
    27.813      -83.561     -866.250
    27.875      -82.636     -877.500
    27.938      -82.114     -888.750
    28.000      -81.945     -900.000
    28.063      -82.113     -911.250
    28.125      -82.630     -922.500
    28.188      -83.538     -933.750
    28.250      -84.928     -945.000
    28.312      -86.983     -956.250
    28.375      -90.126     -967.500
    28.437      -95.667     -978.750
    28.500     -118.211     -990.000
    28.562      -97.100     -821.250
    28.625      -90.895     -832.500
    28.687      -87.554     -843.750
    28.750      -85.417     -855.000
    28.813      -83.990     -866.250
    28.875      -83.066     -877.500
    28.938      -82.544     -888.750
    29.000      -82.375     -900.000
    29.063      -82.544     -911.250
    29.125      -83.061     -922.500
    29.188      -83.969     -933.750
    29.250      -85.359     -945.000
    29.313      -87.417     -956.250
    29.375      -90.566     -967.500
    29.438      -96.125     -978.750
    29.500     -119.183     -990.000
    29.562      -97.469     -821.250
    29.625      -91.287     -832.500
    29.688      -87.953     -843.750
    29.750      -85.818     -855.000
    29.812      -84.393     -866.250
    29.875      -83.470     -877.500
    29.938      -82.948     -888.750
    30.000      -82.779     -900.000
    30.063      -82.947     -911.250
    30.125      -83.464     -922.500
    30.188      -84.373     -933.750
    30.250      -85.765     -945.000
    30.313      -87.825     -956.250
    30.375      -90.979     -967.500
    30.438      -96.556     -978.750
    30.500     -120.141     -990.000
    30.563      -97.814     -821.250
    30.625      -91.654     -832.500
    30.687      -88.326     -843.750
    30.750      -86.194     -855.000
    30.812      -84.770     -866.250
    30.875      -83.848     -877.500
    30.937      -83.326     -888.750
    31.000      -83.157     -900.000
    31.062      -83.325     -911.250
    31.125      -83.843     -922.500
    31.187      -84.752     -933.750
    31.250      -86.144     -945.000
    31.313      -88.206     -956.250
    31.375      -91.366     -967.500
    31.438      -96.960     -978.750
    31.500     -121.087     -990.000
    31.563      -98.137     -821.250
    31.625      -91.998     -832.500
    31.688      -88.676     -843.750
    31.750      -86.546     -855.000
    31.812      -85.123     -866.250
    31.875      -84.201     -877.500
    31.937      -83.679     -888.750
    32.000      -83.511     -900.000
    32.062      -83.679     -911.250
    32.125      -84.196     -922.500
    32.188      -85.106     -933.750
    32.250      -86.499     -945.000
    32.313      -88.564     -956.250
    32.375      -91.728     -967.500
    32.438      -97.338     -978.750
    32.500     -122.027     -990.000
    32.563      -98.437     -821.250
    32.625      -92.318     -832.500
    32.688      -89.002     -843.750
    32.750      -86.874     -855.000
    32.813      -85.452     -866.250
    32.875      -84.531     -877.500
    32.938      -84.009     -888.750
    33.000      -83.841     -900.000
    33.062      -84.009     -911.250
    33.125      -84.526     -922.500
    33.188      -85.436     -933.750
    33.250      -86.831     -945.000
    33.312      -88.897     -956.250
    33.375      -92.067     -967.500
    33.438      -97.693     -978.750
    33.500     -122.964     -990.000
    33.563      -98.716     -821.250
    33.625      -92.616     -832.500
    33.688      -89.305     -843.750
    33.750      -87.180     -855.000
    33.813      -85.759     -866.250
    33.875      -84.838     -877.500
    33.938      -84.317     -888.750
    34.000      -84.148     -900.000
    34.062      -84.316     -911.250
    34.125      -84.834     -922.500
    34.188      -85.744     -933.750
    34.250      -87.140     -945.000
    34.312      -89.208     -956.250
    34.375      -92.382     -967.500
    34.438      -98.024     -978.750
    34.500     -123.902     -990.000
    34.562      -98.973     -821.250
    34.625      -92.892     -832.500
    34.688      -89.587     -843.750
    34.750      -87.464     -855.000
    34.813      -86.044     -866.250
    34.875      -85.123     -877.500
    34.938      -84.602     -888.750
    35.000      -84.433     -900.000
    35.063      -84.602     -911.250
    35.125      -85.120     -922.500
    35.188      -86.030     -933.750
    35.250      -87.426     -945.000
    35.312      -89.497     -956.250
    35.375      -92.676     -967.500
    35.438      -98.332     -978.750
    35.500     -124.848     -990.000
    35.562      -99.211     -821.250
    35.625      -93.148     -832.500
    35.688      -89.848     -843.750
    35.750      -87.727     -855.000
    35.812      -86.308     -866.250
    35.875      -85.387     -877.500
    35.938      -84.867     -888.750
    36.000      -84.698     -900.000
    36.063      -84.866     -911.250
    36.125      -85.384     -922.500
    36.188      -86.295     -933.750
    36.250      -87.692     -945.000
    36.312      -89.764     -956.250
    36.375      -92.948     -967.500
    36.438      -98.619     -978.750
    36.500     -125.807     -990.000
    36.562      -99.429     -821.250
    36.625      -93.383     -832.500
    36.688      -90.088     -843.750
    36.750      -87.969     -855.000
    36.812      -86.551     -866.250
    36.875      -85.631     -877.500
    36.938      -85.110     -888.750
    37.000      -84.941     -900.000
    37.062      -85.110     -911.250
    37.125      -85.628     -922.500
    37.188      -86.539     -933.750
    37.250      -87.937     -945.000
    37.313      -90.011     -956.250
    37.375      -93.199     -967.500
    37.438      -98.884     -978.750
    37.500     -126.787     -990.000
    37.562      -99.628     -821.250
    37.625      -93.598     -832.500
    37.688      -90.308     -843.750
    37.750      -88.191     -855.000
    37.812      -86.774     -866.250
    37.875      -85.854     -877.500
    37.938      -85.334     -888.750
    38.000      -85.165     -900.000
    38.062      -85.333     -911.250
    38.125      -85.851     -922.500
    38.188      -86.763     -933.750
    38.250      -88.162     -945.000
    38.312      -90.238     -956.250
    38.375      -93.430     -967.500
    38.438      -99.130     -978.750
    38.500     -127.795     -990.000
    38.562      -99.808     -821.250
    38.625      -93.794     -832.500
    38.688      -90.509     -843.750
    38.750      -88.394     -855.000
    38.812      -86.978     -866.250
    38.875      -86.058     -877.500
    38.938      -85.538     -888.750
    39.000      -85.369     -900.000
    39.062      -85.537     -911.250
    39.125      -86.056     -922.500
    39.188      -86.968     -933.750
    39.250      -88.367     -945.000
    39.312      -90.445     -956.250
    39.375      -93.641     -967.500
    39.438      -99.355     -978.750
    39.500     -128.844     -990.000
    39.562      -99.970     -821.250
    39.625      -93.971     -832.500
    39.688      -90.690     -843.750
    39.750      -88.577     -855.000
    39.812      -87.162     -866.250
    39.875      -86.243     -877.500
    39.938      -85.723     -888.750
    40.000      -85.554     -900.000
    40.062      -85.722     -911.250
    40.125      -86.241     -922.500
    40.188      -87.153     -933.750
    40.250      -88.553     -945.000
    40.312      -90.633     -956.250
    40.375      -93.833     -967.500
    40.438      -99.560     -978.750
    40.500     -129.947     -990.000
    40.562     -100.113     -821.250
    40.625      -94.130     -832.500
    40.688      -90.853     -843.750
    40.750      -88.742     -855.000
    40.813      -87.328     -866.250
    40.875      -86.409     -877.500
    40.938      -85.889     -888.750
    41.000      -85.720     -900.000
    41.062      -85.889     -911.250
    41.125      -86.407     -922.500
    41.188      -87.320     -933.750
    41.250      -88.721     -945.000
    41.312      -90.802     -956.250
    41.375      -94.006     -967.500
    41.438      -99.747     -978.750
    41.500     -131.122     -990.000
    41.562     -100.239     -821.250
    41.625      -94.270     -832.500
    41.688      -90.998     -843.750
    41.750      -88.889     -855.000
    41.812      -87.475     -866.250
    41.875      -86.557     -877.500
    41.937      -86.037     -888.750
    42.000      -85.868     -900.000
    42.063      -86.036     -911.250
    42.125      -86.555     -922.500
    42.188      -87.468     -933.750
    42.250      -88.870     -945.000
    42.313      -90.952     -956.250
    42.375      -94.161     -967.500
    42.438      -99.915     -978.750
    42.500     -132.393     -990.000
    42.563     -100.347     -821.250
    42.625      -94.393     -832.500
    42.688      -91.125     -843.750
    42.750      -89.017     -855.000
    42.812      -87.604     -866.250
    42.875      -86.686     -877.500
    42.938      -86.166     -888.750
    43.000      -85.998     -900.000
    43.062      -86.166     -911.250
    43.125      -86.685     -922.500
    43.188      -87.598     -933.750
    43.250      -89.001     -945.000
    43.313      -91.085     -956.250
    43.375      -94.298     -967.500
    43.438     -100.065     -978.750
    43.500     -133.796     -990.000
    43.563     -100.437     -821.250
    43.625      -94.498     -832.500
    43.688      -91.234     -843.750
    43.750      -89.128     -855.000
    43.813      -87.716     -866.250
    43.875      -86.798     -877.500
    43.938      -86.278     -888.750
    44.000      -86.110     -900.000
    44.063      -86.278     -911.250
    44.125      -86.797     -922.500
    44.188      -87.711     -933.750
    44.250      -89.114     -945.000
    44.313      -91.200     -956.250
    44.375      -94.416     -967.500
    44.438     -100.197     -978.750
    44.500     -135.384     -990.000
    44.563     -100.511     -821.250
    44.625      -94.585     -832.500
    44.688      -91.325     -843.750
    44.750      -89.221     -855.000
    44.813      -87.810     -866.250
    44.875      -86.892     -877.500
    44.938      -86.373     -888.750
    45.000      -86.204     -900.000
    45.062      -86.372     -911.250
    45.125      -86.891     -922.500
    45.188      -87.805     -933.750
    45.250      -89.209     -945.000
    45.312      -91.297     -956.250
    45.375      -94.517     -967.500
    45.438     -100.311     -978.750
    45.500     -137.241     -990.000
    45.562     -100.567     -821.250
    45.625      -94.655     -832.500
    45.688      -91.399     -843.750
    45.750      -89.297     -855.000
    45.813      -87.886     -866.250
    45.875      -86.969     -877.500
    45.938      -86.450     -888.750
    46.000      -86.281     -900.000
    46.063      -86.449     -911.250
    46.125      -86.968     -922.500
    46.188      -87.883     -933.750
    46.250      -89.287     -945.000
    46.312      -91.377     -956.250
    46.375      -94.601     -967.500
    46.438     -100.408     -978.750
    46.500     -139.514     -990.000
    46.562     -100.606     -821.250
    46.625      -94.708     -832.500
    46.688      -91.456     -843.750
    46.750      -89.355     -855.000
    46.812      -87.945     -866.250
    46.875      -87.029     -877.500
    46.938      -86.509     -888.750
    47.000      -86.341     -900.000
    47.063      -86.509     -911.250
    47.125      -87.028     -922.500
    47.188      -87.943     -933.750
    47.250      -89.348     -945.000
    47.312      -91.439     -956.250
    47.375      -94.668     -967.500
    47.438     -100.487     -978.750
    47.500     -142.505     -990.000
    47.562     -100.629     -821.250
    47.625      -94.744     -832.500
    47.688      -91.496     -843.750
    47.750      -89.397     -855.000
    47.812      -87.987     -866.250
    47.875      -87.071     -877.500
    47.938      -86.552     -888.750
    48.000      -86.383     -900.000
    48.062      -86.552     -911.250
    48.125      -87.071     -922.500
    48.188      -87.986     -933.750
    48.250      -89.392     -945.000
    48.313      -91.485     -956.250
    48.375      -94.717     -967.500
    48.438     -100.549     -978.750
    48.500     -146.987     -990.000
    48.563     -100.634     -821.250
    48.625      -94.762     -832.500
    48.688      -91.518     -843.750
    48.750      -89.421     -855.000
    48.813      -88.013     -866.250
    48.875      -87.097     -877.500
    48.938      -86.577     -888.750
    49.000      -86.409     -900.000
    49.063      -86.577     -911.250
    49.125      -87.096     -922.500
    49.188      -88.012     -933.750
    49.250      -89.419     -945.000
    49.313      -91.513     -956.250
    49.375      -94.749     -967.500
    49.438     -100.594     -978.750
    49.500     -156.552     -990.000
    49.562     -100.623     -821.250
    49.625      -94.764     -832.500
    49.688      -91.524     -843.750
    49.750      -89.428     -855.000
    49.812      -88.021     -866.250
    49.875      -87.105     -877.500
    49.938      -86.586     -888.750

Các thông số quan trọng:
------------------------------
Độ lợi lớn nhất (dB): 0.00
Độ suy giảm lớn nhất (dB): -156.55
Tần số cắt -3dB (Hz): 0.00 - 2.59
